"""
# Onda Corporation
# Hydrophone Preamplifier Calibration Data
#
FILE_NAME AH-2020-20-100-1238_200929.txt
#
AMP_CAL_DATE 29-Sep-2020
AMP_MFG ONDA
AMP_MODEL AH-2020-100
AMP_SN 1238
AMP_GAIN_NOM_DB 20
AMP_BW_NOM_MHZ 100
AMP_OUTPUT_IMP_NOM_OHMS 50
AMP_INPUT_CAP_NOM_PF 7.1
AMP_INPUT_CAP_DATA_TYPE CALIBRATED
AMP_GAIN_UNCERT_DB 0.03
AMP_CAP_UNCERT_PCT 2.5
#
# Calibration Data
# Freq(MHz) Gain(dB) Phase(deg) Cap(pF)
#
DATA_FIELDS 4
DATA_FIELD FREQ_MHZ
DATA_FIELD GAIN_DB
DATA_FIELD PHASE_DEG
DATA_FIELD CAP_PF
#
# End of file header
HEADER_END 0
"""

"""
`Onda_AH2020_1238_0dB`
"""
function calibration(::Val{:Onda_AH2020_1238_0dB})
    return [
        000.0500 -0.92 31.57 6.70
        000.0510 -0.90 30.95 6.70
        000.0520 -0.89 30.31 6.70
        000.0530 -0.88 29.76 6.70
        000.0540 -0.88 29.29 6.70
        000.0550 -0.87 28.75 6.70
        000.0560 -0.85 28.11 6.70
        000.0570 -0.83 27.64 6.70
        000.0580 -0.83 27.20 6.70
        000.0590 -0.82 26.75 6.70
        000.0600 -0.81 26.36 6.70
        000.0610 -0.81 25.92 6.70
        000.0620 -0.82 25.49 6.70
        000.0630 -0.81 25.09 6.70
        000.0640 -0.80 24.75 6.70
        000.0650 -0.79 24.40 6.70
        000.0660 -0.79 24.03 6.70
        000.0670 -0.80 23.69 6.70
        000.0680 -0.81 23.37 6.70
        000.0690 -0.79 23.06 6.70
        000.0700 -0.79 22.82 6.70
        000.0710 -0.78 22.58 6.70
        000.0720 -0.78 22.30 6.70
        000.0730 -0.77 22.04 6.70
        000.0740 -0.76 21.79 6.70
        000.0750 -0.77 21.57 6.70
        000.0760 -0.77 21.35 6.70
        000.0770 -0.76 21.08 6.70
        000.0780 -0.76 20.86 6.70
        000.0790 -0.75 20.71 6.70
        000.0800 -0.75 20.53 6.70
        000.0810 -0.74 20.33 6.70
        000.0820 -0.74 20.15 6.70
        000.0830 -0.73 19.99 6.70
        000.0840 -0.72 19.76 6.70
        000.0850 -0.72 19.51 6.70
        000.0860 -0.71 19.32 6.70
        000.0870 -0.70 19.14 6.70
        000.0880 -0.69 18.97 6.70
        000.0890 -0.69 18.81 6.70
        000.0900 -0.67 18.67 6.70
        000.0910 -0.66 18.53 6.70
        000.0920 -0.66 18.34 6.70
        000.0930 -0.65 18.13 6.70
        000.0940 -0.65 17.98 6.70
        000.0950 -0.64 17.85 6.70
        000.0960 -0.63 17.71 6.70
        000.0970 -0.62 17.54 6.70
        000.0980 -0.61 17.39 6.70
        000.0990 -0.61 17.25 6.70
        000.1000 -0.61 17.11 6.70
        000.1100 -0.54 15.75 6.70
        000.1200 -0.48 14.48 6.70
        000.1300 -0.46 13.42 6.70
        000.1400 -0.43 12.48 6.70
        000.1500 -0.41 11.64 6.70
        000.1600 -0.39 10.91 6.70
        000.1700 -0.37 10.34 6.70
        000.1800 -0.37 9.74 6.70
        000.1900 -0.36 9.23 6.70
        000.2000 -0.34 8.76 6.70
        000.2100 -0.34 8.37 6.70
        000.2200 -0.33 7.96 6.70
        000.2300 -0.32 7.67 6.70
        000.2400 -0.31 7.33 6.70
        000.2500 -0.31 7.01 6.70
        000.2600 -0.31 6.72 6.70
        000.2700 -0.29 6.44 6.70
        000.2800 -0.30 6.30 6.70
        000.2900 -0.29 6.09 6.70
        000.3000 -0.29 5.84 6.70
        000.3100 -0.28 5.67 6.70
        000.3200 -0.28 5.46 6.70
        000.3300 -0.28 5.31 6.70
        000.3400 -0.27 5.15 6.70
        000.3500 -0.27 4.98 6.70
        000.3600 -0.27 4.85 6.70
        000.3700 -0.26 4.70 6.70
        000.3800 -0.26 4.61 6.70
        000.3900 -0.26 4.42 6.70
        000.4000 -0.26 4.36 6.70
        000.4100 -0.25 4.19 6.70
        000.4200 -0.25 4.11 6.70
        000.4300 -0.26 4.03 6.70
        000.4400 -0.25 3.89 6.70
        000.4500 -0.24 3.77 6.70
        000.4600 -0.24 3.68 6.70
        000.4700 -0.24 3.59 6.70
        000.4800 -0.24 3.52 6.70
        000.4900 -0.23 3.45 6.70
        000.5000 -0.23 3.42 6.70
        000.5100 -0.23 3.29 6.70
        000.5200 -0.23 3.20 6.70
        000.5300 -0.23 3.12 6.70
        000.5400 -0.23 3.05 6.70
        000.5500 -0.23 2.97 6.70
        000.5600 -0.22 2.91 6.70
        000.5700 -0.23 2.84 6.70
        000.5800 -0.22 2.78 6.70
        000.5900 -0.21 2.71 6.70
        000.6000 -0.22 2.60 6.70
        000.6100 -0.22 2.55 6.70
        000.6200 -0.21 2.51 6.70
        000.6300 -0.22 2.43 6.70
        000.6400 -0.21 2.42 6.70
        000.6500 -0.21 2.37 6.70
        000.6600 -0.21 2.29 6.70
        000.6700 -0.20 2.27 6.70
        000.6800 -0.20 2.23 6.70
        000.6900 -0.20 2.16 6.70
        000.7000 -0.20 2.07 6.70
        000.7100 -0.19 1.99 6.70
        000.7200 -0.19 1.97 6.70
        000.7300 -0.19 1.94 6.70
        000.7400 -0.20 1.91 6.70
        000.7500 -0.19 1.86 6.70
        000.7600 -0.19 1.81 6.70
        000.7700 -0.18 1.75 6.70
        000.7800 -0.18 1.71 6.70
        000.7900 -0.19 1.70 6.70
        000.8000 -0.19 1.65 6.70
        000.8100 -0.19 1.57 6.70
        000.8200 -0.18 1.51 6.70
        000.8300 -0.17 1.47 6.70
        000.8400 -0.17 1.43 6.70
        000.8500 -0.17 1.39 6.70
        000.8600 -0.18 1.36 6.70
        000.8700 -0.18 1.34 6.70
        000.8800 -0.18 1.30 6.70
        000.8900 -0.18 1.26 6.70
        000.9000 -0.17 1.20 6.70
        000.9100 -0.17 1.14 6.70
        000.9200 -0.17 1.10 6.70
        000.9300 -0.17 1.07 6.70
        000.9400 -0.17 1.03 6.70
        000.9500 -0.17 0.99 6.70
        000.9600 -0.16 0.96 6.70
        000.9700 -0.16 0.93 6.70
        000.9800 -0.16 0.89 6.70
        000.9900 -0.16 0.86 6.70
        001.0000 -0.16 0.83 6.70
        001.1000 -0.15 0.54 6.70
        001.2000 -0.14 0.23 6.70
        001.3000 -0.13 -0.09 6.70
        001.4000 -0.13 -0.36 6.70
        001.5000 -0.13 -0.56 6.70
        001.6000 -0.11 -0.90 6.70
        001.7000 -0.10 -1.11 6.70
        001.8000 -0.10 -1.41 6.70
        001.9000 -0.10 -1.64 6.70
        002.0000 -0.09 -1.86 6.70
        002.1000 -0.10 -2.08 6.70
        002.2000 -0.10 -2.35 6.70
        002.3000 -0.09 -2.54 6.70
        002.4000 -0.10 -2.73 6.70
        002.5000 -0.09 -2.92 6.70
        002.6000 -0.08 -3.11 6.70
        002.7000 -0.09 -3.32 6.70
        002.8000 -0.09 -3.51 6.70
        002.9000 -0.10 -3.71 6.70
        003.0000 -0.09 -3.86 6.70
        003.1000 -0.09 -4.05 6.70
        003.2000 -0.09 -4.29 6.70
        003.3000 -0.09 -4.45 6.70
        003.4000 -0.09 -4.63 6.70
        003.5000 -0.09 -4.84 6.70
        003.6000 -0.09 -5.00 6.70
        003.7000 -0.09 -5.13 6.70
        003.8000 -0.10 -5.36 6.70
        003.9000 -0.09 -5.52 6.70
        004.0000 -0.10 -5.73 6.70
        004.1000 -0.10 -5.89 6.70
        004.2000 -0.09 -6.04 6.70
        004.3000 -0.09 -6.24 6.70
        004.4000 -0.09 -6.46 6.70
        004.5000 -0.09 -6.60 6.70
        004.6000 -0.09 -6.74 6.70
        004.7000 -0.09 -6.94 6.70
        004.8000 -0.09 -7.09 6.70
        004.9000 -0.09 -7.30 6.70
        005.0000 -0.08 -7.45 6.70
        005.1000 -0.08 -7.63 6.70
        005.2000 -0.09 -7.81 6.70
        005.3000 -0.09 -7.98 6.70
        005.4000 -0.08 -8.15 6.70
        005.5000 -0.09 -8.32 6.70
        005.6000 -0.09 -8.52 6.70
        005.7000 -0.08 -8.65 6.70
        005.8000 -0.08 -8.83 6.70
        005.9000 -0.09 -9.07 6.70
        006.0000 -0.09 -9.19 6.70
        006.1000 -0.08 -9.32 6.70
        006.2000 -0.08 -9.49 6.70
        006.3000 -0.08 -9.74 6.70
        006.4000 -0.08 -9.89 6.70
        006.5000 -0.08 -10.05 6.70
        006.6000 -0.08 -10.24 6.70
        006.7000 -0.08 -10.41 6.70
        006.8000 -0.08 -10.58 6.70
        006.9000 -0.08 -10.74 6.70
        007.0000 -0.08 -10.89 6.70
        007.1000 -0.08 -11.05 6.70
        007.2000 -0.08 -11.25 6.70
        007.3000 -0.09 -11.44 6.70
        007.4000 -0.09 -11.63 6.70
        007.5000 -0.09 -11.74 6.70
        007.6000 -0.09 -11.86 6.70
        007.7000 -0.09 -12.07 6.70
        007.8000 -0.09 -12.26 6.70
        007.9000 -0.09 -12.44 6.70
        008.0000 -0.09 -12.62 6.70
        008.1000 -0.09 -12.79 6.70
        008.2000 -0.09 -12.94 6.70
        008.3000 -0.09 -13.08 6.70
        008.4000 -0.09 -13.27 6.70
        008.5000 -0.09 -13.47 6.70
        008.6000 -0.09 -13.63 6.70
        008.7000 -0.09 -13.78 6.70
        008.8000 -0.09 -13.92 6.70
        008.9000 -0.10 -14.06 6.70
        009.0000 -0.10 -14.25 6.70
        009.1000 -0.11 -14.46 6.70
        009.2000 -0.11 -14.64 6.70
        009.3000 -0.10 -14.82 6.70
        009.4000 -0.10 -14.98 6.70
        009.5000 -0.10 -15.13 6.70
        009.6000 -0.10 -15.29 6.70
        009.7000 -0.10 -15.45 6.70
        009.8000 -0.11 -15.61 6.70
        009.9000 -0.10 -15.78 6.70
        010.0000 -0.10 -15.94 6.70
        011.0000 -0.12 -17.57 6.70
        012.0000 -0.14 -19.23 6.70
        013.0000 -0.16 -20.79 6.70
        014.0000 -0.17 -22.37 6.70
        015.0000 -0.18 -23.95 6.70
        016.0000 -0.19 -25.45 6.70
        017.0000 -0.19 -26.97 6.70
        018.0000 -0.20 -28.47 6.70
        019.0000 -0.21 -29.95 6.70
        020.0000 -0.20 -31.46 6.70
        021.0000 -0.20 -33.06 6.70
        022.0000 -0.19 -34.64 6.70
        023.0000 -0.18 -36.25 6.70
        024.0000 -0.18 -37.88 6.70
        025.0000 -0.17 -39.48 6.70
        026.0000 -0.17 -41.16 6.70
        027.0000 -0.17 -42.76 6.70
        028.0000 -0.18 -44.48 6.70
        029.0000 -0.18 -46.15 6.70
        030.0000 -0.20 -47.83 6.70
        031.0000 -0.20 -49.51 6.70
        032.0000 -0.21 -51.17 6.70
        033.0000 -0.22 -52.81 6.70
        034.0000 -0.24 -54.45 6.70
        035.0000 -0.26 -56.09 6.71
        036.0000 -0.28 -57.74 6.71
        037.0000 -0.30 -59.44 6.71
        038.0000 -0.30 -61.08 6.71
        039.0000 -0.32 -62.72 6.71
        040.0000 -0.33 -64.37 6.71
        041.0000 -0.36 -65.96 6.71
        042.0000 -0.39 -67.57 6.71
        043.0000 -0.40 -69.20 6.71
        044.0000 -0.43 -70.84 6.71
        045.0000 -0.45 -72.46 6.72
        046.0000 -0.47 -74.10 6.72
        047.0000 -0.49 -75.66 6.72
        048.0000 -0.51 -77.34 6.72
        049.0000 -0.53 -78.86 6.72
        050.0000 -0.55 -80.51 6.72
        051.0000 -0.58 -82.15 6.72
        052.0000 -0.60 -83.75 6.73
        053.0000 -0.63 -85.35 6.73
        054.0000 -0.66 -86.95 6.73
        055.0000 -0.67 -88.55 6.73
        056.0000 -0.70 -90.11 6.73
        057.0000 -0.72 -91.73 6.73
        058.0000 -0.74 -93.31 6.74
        059.0000 -0.77 -94.83 6.74
        060.0000 -0.80 -96.41 6.74
        061.0000 -0.83 -98.10 6.74
        062.0000 -0.85 -99.76 6.74
        063.0000 -0.87 -101.33 6.75
        064.0000 -0.90 -102.97 6.75
        065.0000 -0.93 -104.55 6.75
        066.0000 -0.94 -106.03 6.75
        067.0000 -0.97 -107.70 6.75
        068.0000 -0.99 -109.34 6.76
        069.0000 -1.02 -110.94 6.76
        070.0000 -1.05 -112.56 6.76
        071.0000 -1.07 -114.18 6.76
        072.0000 -1.10 -115.80 6.77
        073.0000 -1.13 -117.38 6.77
        074.0000 -1.16 -118.92 6.77
        075.0000 -1.19 -120.54 6.77
        076.0000 -1.22 -122.17 6.77
        077.0000 -1.25 -123.83 6.78
        078.0000 -1.29 -125.47 6.78
        079.0000 -1.32 -127.10 6.78
        080.0000 -1.36 -128.70 6.79
        081.0000 -1.39 -130.29 6.79
        082.0000 -1.42 -131.94 6.79
        083.0000 -1.44 -133.61 6.79
        084.0000 -1.48 -135.22 6.80
        085.0000 -1.52 -136.81 6.80
        086.0000 -1.56 -138.44 6.80
        087.0000 -1.59 -140.07 6.81
        088.0000 -1.63 -141.70 6.81
        089.0000 -1.67 -143.33 6.81
        090.0000 -1.71 -144.97 6.81
        091.0000 -1.75 -146.60 6.82
        092.0000 -1.79 -148.22 6.82
        093.0000 -1.84 -149.83 6.82
        094.0000 -1.87 -151.47 6.83
        095.0000 -1.91 -153.11 6.83
        096.0000 -1.95 -154.76 6.83
        097.0000 -2.00 -156.42 6.84
        098.0000 -2.04 -158.05 6.84
        099.0000 -2.08 -159.62 6.84
        100.0000 -2.12 -161.19 6.85
    ]
end
